# The following tables show the relative spectral response (RSR) curves, which take account of the photon to energy conversion of the detector quantum efficiency by multiplying by the wavelengths (FAD = Filter and Detector).
#Thus these RSRs can directly be integrated over spectra given as $F_\lambda$ to obtain the in-band fluxes.
#These RSRs have been prepared in collaboration with Martin Cohen and assure the common calibration of the IRC with other missions and ground-based instruments, including Subaru/COMICS, in the framework of the absolute calibration network provided by Martin Cohen and his colleagues.
#The present RSRs are prepared on the basis of the best laboratory measurements of the optical elements of the IRC
#http://www.ir.isas.jaxa.jp/ASTRO-F/Observation/RSRF/IRC_FAD/index.html
#wave   response   
40000.0   0.0   
40011.0   1.9479e-05   
40027.0   1.9177e-05   
40042.0   1.9282e-05   
40058.0   1.9886e-05   
40073.0   2.0293e-05   
40089.0   1.9999e-05   
40104.0   1.9546e-05   
40120.0   1.9727e-05   
40135.0   2.0185e-05   
40151.0   2.0345e-05   
40166.0   2.0383e-05   
40182.0   2.0563e-05   
40197.0   2.0676e-05   
40213.0   2.054e-05   
40229.0   2.0425e-05   
40244.0   2.0367e-05   
40260.0   2.0235e-05   
40275.0   2.0242e-05   
40291.0   2.0371e-05   
40307.0   2.0357e-05   
40322.0   2.0349e-05   
40338.0   2.043e-05   
40354.0   2.0371e-05   
40369.0   2.0352e-05   
40385.0   2.0627e-05   
40401.0   2.0854e-05   
40417.0   2.0896e-05   
40432.0   2.0824e-05   
40448.0   2.0789e-05   
40464.0   2.098e-05   
40480.0   2.1188e-05   
40496.0   2.1229e-05   
40511.0   2.0962e-05   
40527.0   2.0763e-05   
40543.0   2.0779e-05   
40559.0   2.052e-05   
40575.0   2.0323e-05   
40591.0   2.0786e-05   
40607.0   2.1459e-05   
40622.0   2.1647e-05   
40638.0   2.1338e-05   
40654.0   2.1011e-05   
40670.0   2.1141e-05   
40686.0   2.1586e-05   
40702.0   2.1875e-05   
40718.0   2.2173e-05   
40734.0   2.2465e-05   
40750.0   2.2191e-05   
40766.0   2.1605e-05   
40782.0   2.1398e-05   
40798.0   2.1702e-05   
40814.0   2.2073e-05   
40830.0   2.2169e-05   
40846.0   2.2242e-05   
40863.0   2.234e-05   
40879.0   2.2033e-05   
40895.0   2.1604e-05   
40911.0   2.1485e-05   
40927.0   2.1487e-05   
40943.0   2.1563e-05   
40959.0   2.1709e-05   
40976.0   2.1647e-05   
40992.0   2.1605e-05   
41008.0   2.1811e-05   
41024.0   2.2067e-05   
41040.0   2.2165e-05   
41057.0   2.2067e-05   
41073.0   2.1966e-05   
41089.0   2.2098e-05   
41105.0   2.2198e-05   
41122.0   2.1972e-05   
41138.0   2.1786e-05   
41154.0   2.207e-05   
41171.0   2.2558e-05   
41187.0   2.2616e-05   
41203.0   2.2363e-05   
41220.0   2.2313e-05   
41236.0   2.2462e-05   
41253.0   2.2636e-05   
41269.0   2.2655e-05   
41286.0   2.2454e-05   
41302.0   2.2393e-05   
41318.0   2.2582e-05   
41335.0   2.2489e-05   
41351.0   2.2102e-05   
41368.0   2.1914e-05   
41384.0   2.2144e-05   
41401.0   2.2504e-05   
41417.0   2.2502e-05   
41434.0   2.2265e-05   
41451.0   2.2171e-05   
41467.0   2.2216e-05   
41484.0   2.232e-05   
41500.0   2.2471e-05   
41517.0   2.269e-05   
41534.0   2.2746e-05   
41550.0   2.2366e-05   
41567.0   2.207e-05   
41583.0   2.2227e-05   
41600.0   2.2311e-05   
41617.0   2.1876e-05   
41634.0   2.1313e-05   
41650.0   2.1468e-05   
41667.0   2.221e-05   
41684.0   2.2708e-05   
41701.0   2.2771e-05   
41717.0   2.2565e-05   
41734.0   2.2394e-05   
41751.0   2.2691e-05   
41768.0   2.2995e-05   
41785.0   2.2879e-05   
41801.0   2.2841e-05   
41818.0   2.2951e-05   
41835.0   2.2722e-05   
41852.0   2.234e-05   
41869.0   2.2204e-05   
41886.0   2.2472e-05   
41903.0   2.2892e-05   
41920.0   2.2958e-05   
41937.0   2.2668e-05   
41954.0   2.2446e-05   
41971.0   2.273e-05   
41988.0   2.293e-05   
42005.0   2.2419e-05   
42022.0   2.2051e-05   
42039.0   2.2499e-05   
42056.0   2.2939e-05   
42073.0   2.2931e-05   
42090.0   2.2941e-05   
42107.0   2.3089e-05   
42124.0   2.3183e-05   
42141.0   2.3172e-05   
42158.0   2.3172e-05   
42175.0   2.3118e-05   
42193.0   2.2932e-05   
42210.0   2.2789e-05   
42227.0   2.2502e-05   
42244.0   2.235e-05   
42261.0   2.3021e-05   
42279.0   2.3543e-05   
42296.0   2.3423e-05   
42313.0   2.3199e-05   
42330.0   2.3149e-05   
42348.0   2.2833e-05   
42365.0   2.1967e-05   
42382.0   2.1351e-05   
42400.0   2.1217e-05   
42417.0   2.1184e-05   
42434.0   2.1355e-05   
42452.0   2.1769e-05   
42469.0   2.2212e-05   
42486.0   2.2779e-05   
42504.0   2.3165e-05   
42521.0   2.26e-05   
42539.0   2.205e-05   
42556.0   2.2257e-05   
42574.0   2.2048e-05   
42591.0   2.1375e-05   
42609.0   2.0982e-05   
42626.0   2.1186e-05   
42644.0   2.1423e-05   
42661.0   2.1164e-05   
42679.0   2.0967e-05   
42696.0   2.122e-05   
42714.0   2.1508e-05   
42731.0   2.1309e-05   
42749.0   2.0781e-05   
42767.0   2.0458e-05   
42784.0   2.0289e-05   
42802.0   1.9939e-05   
42820.0   1.9655e-05   
42837.0   1.9633e-05   
42855.0   2.0032e-05   
42873.0   2.0553e-05   
42890.0   2.048e-05   
42908.0   2.0045e-05   
42926.0   1.9406e-05   
42944.0   1.899e-05   
42962.0   1.894e-05   
42979.0   1.8739e-05   
42997.0   1.8977e-05   
43015.0   1.9562e-05   
43033.0   1.9511e-05   
43051.0   1.9036e-05   
43069.0   1.8791e-05   
43086.0   1.892e-05   
43104.0   1.9157e-05   
43122.0   1.8969e-05   
43140.0   1.8576e-05   
43158.0   1.8297e-05   
43176.0   1.8085e-05   
43194.0   1.8e-05   
43212.0   1.7729e-05   
43230.0   1.7696e-05   
43248.0   1.7925e-05   
43266.0   1.7567e-05   
43284.0   1.696e-05   
43302.0   1.6828e-05   
43320.0   1.6992e-05   
43339.0   1.7374e-05   
43357.0   1.765e-05   
43375.0   1.735e-05   
43393.0   1.6965e-05   
43411.0   1.6832e-05   
43429.0   1.6512e-05   
43447.0   1.6024e-05   
43466.0   1.5881e-05   
43484.0   1.5962e-05   
43502.0   1.5824e-05   
43520.0   1.5438e-05   
43539.0   1.5138e-05   
43557.0   1.5133e-05   
43575.0   1.5554e-05   
43594.0   1.568e-05   
43612.0   1.5206e-05   
43630.0   1.4929e-05   
43649.0   1.4882e-05   
43667.0   1.467e-05   
43685.0   1.4532e-05   
43704.0   1.4638e-05   
43722.0   1.4698e-05   
43741.0   1.4343e-05   
43759.0   1.3605e-05   
43778.0   1.3049e-05   
43796.0   1.2997e-05   
43815.0   1.3154e-05   
43833.0   1.3147e-05   
43852.0   1.2836e-05   
43870.0   1.2401e-05   
43889.0   1.2091e-05   
43907.0   1.1917e-05   
43926.0   1.1689e-05   
43945.0   1.1323e-05   
43963.0   1.1383e-05   
43982.0   1.1826e-05   
44001.0   1.2307e-05   
44019.0   1.2462e-05   
44038.0   1.2152e-05   
44057.0   1.1672e-05   
44075.0   1.1069e-05   
44094.0   1.0396e-05   
44113.0   1.0046e-05   
44132.0   1.0104e-05   
44150.0   1.0263e-05   
44169.0   1.0352e-05   
44188.0   1.007e-05   
44207.0   9.6239e-06   
44226.0   9.5573e-06   
44245.0   9.4336e-06   
44263.0   9.0447e-06   
44282.0   8.8636e-06   
44301.0   8.8869e-06   
44320.0   8.7924e-06   
44339.0   8.4666e-06   
44358.0   7.9597e-06   
44377.0   7.593e-06   
44396.0   7.7447e-06   
44415.0   8.0166e-06   
44434.0   7.8956e-06   
44453.0   7.6178e-06   
44472.0   7.3535e-06   
44491.0   6.8183e-06   
44510.0   6.4014e-06   
44529.0   6.7027e-06   
44549.0   7.0352e-06   
44568.0   6.5516e-06   
44587.0   5.8752e-06   
44606.0   5.207e-06   
44625.0   4.7555e-06   
44644.0   5.1951e-06   
44664.0   5.5887e-06   
44683.0   5.4346e-06   
44702.0   5.2816e-06   
44722.0   5.0144e-06   
44741.0   4.5112e-06   
44760.0   4.5009e-06   
44779.0   5.0606e-06   
44799.0   5.6096e-06   
44818.0   5.8848e-06   
44838.0   5.686e-06   
44857.0   4.8631e-06   
44876.0   4.2848e-06   
44896.0   4.1985e-06   
44915.0   4.1087e-06   
44935.0   4.0522e-06   
44954.0   4.0184e-06   
44974.0   3.5853e-06   
44993.0   3.0926e-06   
45013.0   3.3435e-06   
45032.0   3.743e-06   
45052.0   4.0308e-06   
45071.0   4.2225e-06   
45091.0   4.1326e-06   
45111.0   3.9352e-06   
45130.0   4.1704e-06   
45150.0   4.7511e-06   
45170.0   4.9871e-06   
45189.0   4.7927e-06   
45209.0   4.5692e-06   
45229.0   4.2049e-06   
45248.0   3.9235e-06   
45268.0   4.1728e-06   
45288.0   4.401e-06   
45308.0   4.1828e-06   
45327.0   3.9681e-06   
45347.0   4.126e-06   
45367.0   4.255e-06   
45387.0   5.0475e-06   
45407.0   6.006e-06   
45427.0   6.1636e-06   
45447.0   5.9426e-06   
45467.0   5.5301e-06   
45486.0   5.0931e-06   
45506.0   4.8491e-06   
45526.0   4.7238e-06   
45546.0   4.925e-06   
45566.0   5.7517e-06   
45586.0   6.5406e-06   
45606.0   7.0969e-06   
45627.0   7.6236e-06   
45647.0   7.5276e-06   
45667.0   7.3184e-06   
45687.0   7.8631e-06   
45707.0   8.464e-06   
45727.0   8.5094e-06   
45747.0   8.5525e-06   
45768.0   7.6235e-06   
45788.0   6.3968e-06   
45808.0   6.5242e-06   
45828.0   7.3318e-06   
45848.0   8.286e-06   
45869.0   9.2552e-06   
45889.0   9.7876e-06   
45909.0   9.9436e-06   
45930.0   1.0466e-05   
45950.0   1.1523e-05   
45970.0   1.2503e-05   
45991.0   1.3207e-05   
46011.0   1.3848e-05   
46032.0   1.3968e-05   
46052.0   1.3736e-05   
46072.0   1.4375e-05   
46093.0   1.563e-05   
46113.0   1.6717e-05   
46134.0   1.7349e-05   
46155.0   1.7913e-05   
46175.0   1.8819e-05   
46196.0   1.981e-05   
46216.0   2.0411e-05   
46237.0   2.0687e-05   
46257.0   2.1258e-05   
46278.0   2.2144e-05   
46299.0   2.2635e-05   
46319.0   2.258e-05   
46340.0   2.2593e-05   
46361.0   2.2959e-05   
46382.0   2.3548e-05   
46402.0   2.4121e-05   
46423.0   2.5197e-05   
46444.0   2.6619e-05   
46465.0   2.8227e-05   
46486.0   2.9413e-05   
46506.0   3.0172e-05   
46527.0   3.1518e-05   
46548.0   3.3611e-05   
46569.0   3.5166e-05   
46590.0   3.5518e-05   
46611.0   3.6032e-05   
46632.0   3.766e-05   
46653.0   3.9452e-05   
46674.0   4.0564e-05   
46695.0   4.1473e-05   
46716.0   4.2332e-05   
46737.0   4.279e-05   
46758.0   4.3378e-05   
46779.0   4.5232e-05   
46800.0   4.8066e-05   
46821.0   5.022e-05   
46842.0   5.1204e-05   
46864.0   5.1272e-05   
46885.0   5.1948e-05   
46906.0   5.5371e-05   
46927.0   5.8476e-05   
46948.0   5.9601e-05   
46970.0   6.0852e-05   
46991.0   6.2801e-05   
47012.0   6.4929e-05   
47034.0   6.7184e-05   
47055.0   6.8983e-05   
47076.0   7.0923e-05   
47098.0   7.4367e-05   
47119.0   7.7131e-05   
47141.0   7.7915e-05   
47162.0   7.9279e-05   
47183.0   8.2761e-05   
47205.0   8.6485e-05   
47226.0   8.7679e-05   
47248.0   8.6869e-05   
47269.0   8.8474e-05   
47291.0   9.3273e-05   
47313.0   9.6566e-05   
47334.0   9.7291e-05   
47356.0   9.9868e-05   
47377.0   0.00010496   
47399.0   0.00010768   
47421.0   0.00010717   
47442.0   0.00010742   
47464.0   0.00010952   
47486.0   0.00011182   
47508.0   0.00011399   
47529.0   0.00011666   
47551.0   0.00012274   
47573.0   0.00012913   
47595.0   0.00013027   
47617.0   0.00012851   
47639.0   0.00013076   
47660.0   0.00013842   
47682.0   0.00014639   
47704.0   0.00015067   
47726.0   0.00015216   
47748.0   0.00015499   
47770.0   0.00016045   
47792.0   0.00016542   
47814.0   0.00016838   
47836.0   0.00017049   
47858.0   0.00017435   
47881.0   0.00018084   
47903.0   0.00018723   
47925.0   0.00019226   
47947.0   0.00019609   
47969.0   0.00019761   
47991.0   0.0001971   
48014.0   0.00019634   
48036.0   0.00020122   
48058.0   0.00020918   
48080.0   0.00021054   
48103.0   0.00021017   
48125.0   0.00021551   
48147.0   0.00022484   
48170.0   0.0002305   
48192.0   0.00023009   
48214.0   0.00023045   
48237.0   0.00023631   
48259.0   0.00024136   
48282.0   0.00024375   
48304.0   0.00025196   
48327.0   0.00026384   
48349.0   0.00027046   
48372.0   0.0002747   
48394.0   0.00028064   
48417.0   0.00028718   
48440.0   0.00029376   
48462.0   0.00029466   
48485.0   0.00028848   
48508.0   0.0002843   
48530.0   0.00029077   
48553.0   0.00030323   
48576.0   0.00031057   
48598.0   0.0003128   
48621.0   0.00031596   
48644.0   0.00032155   
48667.0   0.00032515   
48690.0   0.00032573   
48713.0   0.00032929   
48736.0   0.0003404   
48758.0   0.00035281   
48781.0   0.00035914   
48804.0   0.00036538   
48827.0   0.00037687   
48850.0   0.00038775   
48873.0   0.00039158   
48896.0   0.00039104   
48919.0   0.00039454   
48943.0   0.00040369   
48966.0   0.00041348   
48989.0   0.00041972   
49012.0   0.00042208   
49035.0   0.00042173   
49058.0   0.00042387   
49081.0   0.00043132   
49105.0   0.00043542   
49128.0   0.00043514   
49151.0   0.00043923   
49175.0   0.0004446   
49198.0   0.00044968   
49221.0   0.000464   
49245.0   0.00047769   
49268.0   0.00047726   
49291.0   0.00048014   
49315.0   0.00049563   
49338.0   0.00051246   
49362.0   0.00052348   
49385.0   0.00052334   
49409.0   0.00053158   
49432.0   0.00055969   
49456.0   0.00057797   
49480.0   0.00057204   
49503.0   0.00056364   
49527.0   0.0005682   
49550.0   0.00057889   
49574.0   0.00059113   
49598.0   0.0006045   
49622.0   0.00061994   
49645.0   0.00063398   
49669.0   0.00063632   
49693.0   0.00063029   
49717.0   0.00063089   
49741.0   0.00064291   
49764.0   0.00065607   
49788.0   0.00065941   
49812.0   0.0006588   
49836.0   0.00067016   
49860.0   0.00069094   
49884.0   0.00070337   
49908.0   0.00070443   
49932.0   0.0007062   
49956.0   0.00071433   
49980.0   0.00072001   
50004.0   0.0007206   
50029.0   0.00073179   
50053.0   0.00075592   
50077.0   0.00077121   
50101.0   0.00076648   
50125.0   0.00076567   
50150.0   0.00078289   
50174.0   0.00079505   
50198.0   0.0007894   
50222.0   0.00079117   
50247.0   0.00082332   
50271.0   0.00086013   
50295.0   0.00086193   
50320.0   0.00083621   
50344.0   0.00081999   
50369.0   0.00082205   
50393.0   0.00082221   
50418.0   0.00081992   
50442.0   0.00083308   
50467.0   0.0008636   
50491.0   0.00088758   
50516.0   0.00088224   
50541.0   0.00086595   
50565.0   0.00087086   
50590.0   0.00088496   
50615.0   0.00089139   
50639.0   0.00090235   
50664.0   0.00092031   
50689.0   0.00094969   
50714.0   0.0009754   
50738.0   0.00096729   
50763.0   0.00094212   
50788.0   0.00094832   
50813.0   0.0009945   
50838.0   0.0010396   
50863.0   0.0010507   
50888.0   0.0010441   
50913.0   0.0010428   
50938.0   0.0010368   
50963.0   0.0010175   
50988.0   0.0010173   
51013.0   0.0010522   
51038.0   0.0010732   
51063.0   0.0010606   
51088.0   0.0010593   
51113.0   0.0010761   
51139.0   0.0010851   
51164.0   0.001088   
51189.0   0.0010993   
51214.0   0.0011246   
51240.0   0.0011544   
51265.0   0.0011679   
51290.0   0.0011567   
51316.0   0.0011485   
51341.0   0.0011686   
51367.0   0.0011898   
51392.0   0.001186   
51418.0   0.0011729   
51443.0   0.0011642   
51469.0   0.0011525   
51494.0   0.0011405   
51520.0   0.0011652   
51545.0   0.0012324   
51571.0   0.0012945   
51597.0   0.0013125   
51622.0   0.0012793   
51648.0   0.0012334   
51674.0   0.0012206   
51699.0   0.0012336   
51725.0   0.0012452   
51751.0   0.0012473   
51777.0   0.0012534   
51803.0   0.0012728   
51829.0   0.0012805   
51855.0   0.0012503   
51881.0   0.0012148   
51906.0   0.0012169   
51932.0   0.0012312   
51959.0   0.0012339   
51985.0   0.0012459   
52011.0   0.001276   
52037.0   0.0013164   
52063.0   0.0013448   
52089.0   0.0013415   
52115.0   0.0013338   
52141.0   0.0013421   
52168.0   0.0013471   
52194.0   0.0013435   
52220.0   0.0013507   
52246.0   0.0013892   
52273.0   0.0014242   
52299.0   0.0014102   
52326.0   0.0013896   
52352.0   0.0013983   
52378.0   0.001401   
52405.0   0.0013895   
52431.0   0.0013927   
52458.0   0.0014085   
52484.0   0.0014227   
52511.0   0.0014319   
52538.0   0.0014246   
52564.0   0.0014196   
52591.0   0.001454   
52618.0   0.0014973   
52644.0   0.0015007   
52671.0   0.0014757   
52698.0   0.0014593   
52725.0   0.0014568   
52751.0   0.0014555   
52778.0   0.0014484   
52805.0   0.0014386   
52832.0   0.0014234   
52859.0   0.0013985   
52886.0   0.0014111   
52913.0   0.001473   
52940.0   0.0015132   
52967.0   0.0015167   
52994.0   0.0015065   
53021.0   0.001505   
53048.0   0.0015411   
53075.0   0.0015651   
53102.0   0.0015338   
53130.0   0.0014994   
53157.0   0.0015012   
53184.0   0.0015205   
53211.0   0.0015305   
53239.0   0.0015211   
53266.0   0.001518   
53294.0   0.0015597   
53321.0   0.0016142   
53348.0   0.0016065   
53376.0   0.0015515   
53403.0   0.0015416   
53431.0   0.001577   
53458.0   0.0015766   
53486.0   0.0015539   
53514.0   0.0015737   
53541.0   0.0016096   
53569.0   0.0016134   
53596.0   0.0015983   
53624.0   0.0016042   
53652.0   0.001643   
53680.0   0.0016767   
53707.0   0.0016662   
53735.0   0.001624   
53763.0   0.0016147   
53791.0   0.0016513   
53819.0   0.0016573   
53847.0   0.0016358   
53875.0   0.0016708   
53903.0   0.0017265   
53931.0   0.0017108   
53959.0   0.0016594   
53987.0   0.001658   
54015.0   0.0016967   
54043.0   0.0017179   
54072.0   0.0017182   
54100.0   0.0017191   
54128.0   0.001719   
54156.0   0.001721   
54185.0   0.0017361   
54213.0   0.0017473   
54241.0   0.001735   
54270.0   0.0017252   
54298.0   0.0017106   
54326.0   0.0016687   
54355.0   0.0016427   
54383.0   0.0016687   
54412.0   0.001718   
54441.0   0.0017444   
54469.0   0.0017453   
54498.0   0.0017477   
54526.0   0.0017601   
54555.0   0.0017538   
54584.0   0.0017112   
54613.0   0.0016984   
54641.0   0.0017566   
54670.0   0.0018196   
54699.0   0.0018165   
54728.0   0.0017482   
54757.0   0.0017083   
54786.0   0.0017208   
54815.0   0.001731   
54844.0   0.0017755   
54873.0   0.001849   
54902.0   0.0018702   
54931.0   0.0018431   
54960.0   0.0018106   
54989.0   0.0017994   
55018.0   0.0018104   
55047.0   0.0018186   
55077.0   0.0018063   
55106.0   0.0017844   
55135.0   0.0017818   
55164.0   0.0017936   
55194.0   0.0018137   
55223.0   0.0018451   
55253.0   0.00185   
55282.0   0.0018138   
55312.0   0.001766   
55341.0   0.0017117   
55371.0   0.0016815   
55400.0   0.0017104   
55430.0   0.0017485   
55459.0   0.0017479   
55489.0   0.001739   
55519.0   0.0017672   
55549.0   0.0018277   
55578.0   0.0018408   
55608.0   0.0017862   
55638.0   0.0017646   
55668.0   0.0018173   
55698.0   0.0018515   
55728.0   0.0018261   
55758.0   0.0018306   
55788.0   0.0018825   
55818.0   0.0018883   
55848.0   0.0018168   
55878.0   0.0017314   
55908.0   0.0017117   
55938.0   0.0017569   
55968.0   0.0017966   
55998.0   0.0017871   
56029.0   0.0017495   
56059.0   0.0017173   
56089.0   0.0016878   
56120.0   0.0016748   
56150.0   0.001698   
56180.0   0.0017273   
56211.0   0.0017429   
56241.0   0.0017204   
56272.0   0.0016742   
56302.0   0.0016725   
56333.0   0.0016673   
56364.0   0.0016249   
56394.0   0.0016284   
56425.0   0.0016976   
56456.0   0.0017735   
56486.0   0.0017756   
56517.0   0.0016929   
56548.0   0.0016207   
56579.0   0.0016076   
56610.0   0.0016321   
56641.0   0.0016529   
56672.0   0.0016406   
56703.0   0.0016265   
56734.0   0.0016738   
56765.0   0.0017377   
56796.0   0.0017268   
56827.0   0.0017154   
56858.0   0.0017439   
56889.0   0.0017162   
56921.0   0.0016332   
56952.0   0.0015735   
56983.0   0.0015898   
57014.0   0.001637   
57046.0   0.0016402   
57077.0   0.0016222   
57109.0   0.0016197   
57140.0   0.0016516   
57172.0   0.0017172   
57203.0   0.0017841   
57235.0   0.0018426   
57266.0   0.0018784   
57298.0   0.0019022   
57330.0   0.0019663   
57361.0   0.0020546   
57393.0   0.00213   
57425.0   0.0021976   
57457.0   0.0022637   
57488.0   0.0022953   
57520.0   0.0023544   
57552.0   0.0025052   
57584.0   0.0026561   
57616.0   0.0028135   
57648.0   0.0030085   
57680.0   0.0031287   
57712.0   0.0032078   
57745.0   0.0033273   
57777.0   0.0034595   
57809.0   0.0035763   
57841.0   0.0037028   
57873.0   0.0038916   
57906.0   0.0041214   
57938.0   0.0043557   
57970.0   0.0045956   
58003.0   0.0048042   
58035.0   0.004999   
58068.0   0.0052464   
58100.0   0.005557   
58133.0   0.0058798   
58166.0   0.0062121   
58198.0   0.00656   
58231.0   0.0068734   
58264.0   0.0071741   
